Angle	Intensity
25.008	1.28E-02
25.025	-6.54E-03
25.042	-6.17E-03
25.059	1.61E-02
25.076	-3.24E-03
25.093	1.03E-02
25.11	4.81E-03
25.127	1.03E-02
25.144	4.81E-03
25.161	2.20E-02
25.178	-2.37E-02
25.195	-6.53E-03
25.212	-1.28E-02
25.229	2.56E-02
25.246	2.31E-02
25.263	2.71E-02
25.28	-1.28E-02
25.297	-6.56E-03
25.314	-1.08E-03
25.331	8.05E-03
25.348	-3.29E-03
25.365	-4.40E-03
25.382	1.64E-02
25.399	1.90E-02
25.416	1.50E-02
25.433	1.31E-02
25.45	8.35E-03
25.467	5.77E-03
25.484	4.66E-03
25.501	-3.76E-03
25.518	-4.15E-03
25.535	-7.46E-03
25.552	-2.32E-02
25.569	-2.94E-02
25.586	-5.68E-03
25.603	-2.20E-04
25.62	-5.00E-03
25.637	6.32E-03
25.654	1.54E-03
25.671	1.07E-02
25.688	4.42E-03
25.705	-1.94E-02
25.722	7.06E-04
25.739	-1.15E-03
25.756	-1.40E-02
25.773	-7.06E-03
25.79	-1.92E-02
25.807	-1.52E-02
25.824	-2.41E-03
25.841	1.40E-02
25.858	-1.64E-02
25.875	-1.39E-02
25.892	1.13E-02
25.909	1.02E-02
25.926	2.83E-04
25.943	3.79E-02
25.96	-1.27E-03
25.977	-9.47E-04
25.994	1.33E-02
26.011	-1.20E-02
26.028	-1.46E-03
26.045	1.57E-02
26.062	-3.96E-02
26.079	3.24E-02
26.096	-6.80E-03
26.113	-1.97E-02
26.13	-3.32E-04
26.147	1.75E-02
26.164	-2.09E-02
26.181	-2.58E-02
26.198	-7.90E-03
26.215	-1.64E-02
26.232	-1.54E-02
26.249	2.22E-02
26.266	1.74E-02
26.283	1.48E-02
26.3	1.65E-02
26.317	1.02E-02
26.334	-2.46E-02
26.351	4.95E-03
26.368	4.33E-02
26.385	2.74E-02
26.402	4.31E-03
26.419	-9.31E-03
26.436	-4.65E-03
26.453	-1.75E-02
26.47	-2.39E-02
26.487	-1.04E-02
26.504	5.19E-03
26.521	1.86E-02
26.538	5.70E-03
26.555	3.76E-03
26.572	2.89E-02
26.589	1.38E-02
26.606	1.58E-03
26.623	1.82E-03
26.64	2.03E-02
26.657	3.03E-03
26.674	2.53E-03
26.691	-2.72E-02
26.708	-1.09E-02
26.725	3.17E-02
26.742	-9.49E-04
26.759	9.51E-03
26.776	-6.37E-03
26.793	-2.50E-03
26.81	-8.25E-04
26.827	7.43E-03
26.844	-1.07E-02
26.861	-1.26E-02
26.878	1.39E-02
26.895	3.97E-02
26.912	2.74E-02
26.929	1.88E-02
26.946	3.24E-06
26.963	-8.59E-03
26.98	-1.72E-02
26.997	7.85E-03
27.014	3.80E-02
27.031	1.92E-02
27.048	1.05E-02
27.065	-3.32E-02
27.082	-3.03E-03
27.099	2.49E-02
27.116	8.24E-03
27.133	4.00E-03
27.15	3.12E-02
27.167	2.48E-02
27.184	2.49E-02
27.201	3.31E-02
27.218	-4.07E-03
27.235	-2.00E-02
27.252	-1.19E-02
27.269	-1.03E-02
27.286	-6.23E-04
27.303	4.62E-03
27.32	1.43E-02
27.337	-3.18E-03
27.354	-5.25E-03
27.371	1.90E-02
27.388	1.56E-03
27.405	-3.44E-03
27.422	1.20E-02
27.439	8.49E-03
27.456	4.95E-03
27.473	-3.72E-03
27.49	-3.61E-03
27.507	-5.71E-04
27.524	-7.04E-03
27.541	1.57E-02
27.558	7.08E-03
27.575	-4.52E-03
27.592	1.53E-02
27.609	-2.83E-03
27.626	7.52E-03
27.643	-1.88E-03
27.66	1.07E-02
27.677	2.69E-02
27.694	-1.53E-03
27.711	8.09E-03
27.728	2.87E-02
27.745	9.05E-03
27.762	2.01E-02
27.779	-7.53E-03
27.796	1.36E-03
27.813	2.93E-02
27.83	4.53E-03
27.847	1.27E-02
27.864	6.25E-03
27.881	1.37E-02
27.898	4.16E-02
27.915	2.05E-02
27.932	3.83E-03
27.949	1.86E-02
27.966	1.73E-02
27.983	-2.35E-03
28	2.85E-02
28.017	3.30E-02
28.034	2.22E-02
28.051	5.31E-02
28.068	3.57E-02
28.085	3.65E-02
28.102	2.50E-02
28.119	6.83E-02
28.136	5.89E-02
28.153	4.37E-02
28.17	8.34E-02
28.187	6.82E-02
28.204	5.00E-02
28.221	6.11E-02
28.238	7.67E-02
28.255	7.76E-02
28.272	7.48E-02
28.289	9.54E-02
28.306	1.10E-01
28.323	1.01E-01
28.34	9.59E-02
28.357	8.51E-02
28.374	7.65E-02
28.391	7.45E-02
28.408	7.25E-02
28.425	8.00E-02
28.442	8.89E-02
28.459	8.11E-02
28.476	6.88E-02
28.493	7.34E-02
28.51	9.92E-02
28.527	1.14E-01
28.544	7.17E-02
28.561	6.31E-02
28.578	6.70E-02
28.595	5.62E-02
28.612	4.84E-02
28.629	3.61E-02
28.646	3.19E-02
28.663	4.16E-02
28.68	4.55E-02
28.697	1.79E-02
28.714	3.27E-02
28.731	1.02E-02
28.748	2.72E-02
28.765	2.82E-02
28.782	4.89E-02
28.799	2.86E-02
28.816	1.42E-02
28.833	9.25E-03
28.85	1.31E-02
28.867	3.81E-03
28.884	1.21E-02
28.901	7.89E-03
28.918	3.71E-03
28.935	2.46E-03
28.952	5.46E-02
28.969	2.56E-02
28.986	1.92E-02
29.003	2.01E-02
29.02	5.73E-03
29.037	1.47E-02
29.054	1.49E-02
29.071	-6.05E-03
29.088	-7.06E-04
29.105	1.85E-02
29.122	2.24E-02
29.139	1.68E-02
29.156	2.29E-02
29.173	2.31E-02
29.19	2.70E-02
29.207	8.67E-04
29.224	8.41E-03
29.241	1.67E-02
29.258	2.13E-02
29.275	1.05E-03
29.292	1.52E-02
29.309	2.86E-02
29.326	1.78E-02
29.343	2.32E-02
29.36	2.56E-02
29.377	1.42E-02
29.394	6.35E-03
29.411	2.27E-02
29.428	1.78E-02
29.445	1.88E-02
29.462	1.17E-02
29.479	9.60E-04
29.496	1.66E-02
29.513	1.61E-02
29.53	3.88E-03
29.547	1.22E-02
29.564	3.22E-02
29.581	1.41E-02
29.598	1.14E-02
29.615	2.63E-02
29.632	1.34E-02
29.649	5.59E-03
29.666	-7.39E-04
29.683	1.56E-02
29.7	1.22E-02
29.717	-1.45E-03
29.734	2.66E-02
29.751	2.54E-02
29.768	-1.31E-02
29.785	1.78E-02
29.802	3.42E-02
29.819	1.52E-03
29.836	3.11E-04
29.853	1.89E-02
29.87	2.42E-02
29.887	1.50E-02
29.904	1.82E-02
29.921	8.60E-04
29.938	1.72E-02
29.955	3.36E-02
29.972	-1.15E-02
29.989	1.14E-02
30.006	2.70E-02
30.023	2.66E-02
30.04	8.52E-03
30.057	3.66E-02
30.074	2.00E-02
30.091	-6.78E-03
30.108	5.92E-03
30.125	1.28E-02
30.142	4.01E-02
30.159	4.99E-02
30.176	1.87E-02
30.193	2.99E-02
30.21	4.04E-02
30.227	1.95E-02
30.244	5.11E-03
30.261	2.15E-02
30.278	1.00E-02
30.295	1.32E-02
30.312	2.89E-02
30.329	1.96E-02
30.346	2.28E-02
30.363	2.53E-02
30.38	1.75E-02
30.397	9.00E-03
30.414	2.83E-02
30.431	2.86E-02
30.448	1.42E-02
30.465	2.62E-02
30.482	2.86E-02
30.499	3.70E-02
30.516	3.36E-02
30.533	3.53E-02
30.55	3.49E-02
30.567	2.71E-02
30.584	2.37E-02
30.601	2.25E-02
30.618	1.26E-02
30.635	1.28E-02
30.652	2.48E-02
30.669	3.46E-02
30.686	2.10E-02
30.703	2.27E-02
30.72	1.79E-02
30.737	1.67E-02
30.754	2.43E-02
30.771	2.39E-02
30.788	3.22E-02
30.805	2.95E-02
30.822	2.32E-02
30.839	2.65E-02
30.856	1.28E-02
30.873	2.78E-02
30.89	2.95E-02
30.907	2.61E-02
30.924	3.37E-02
30.941	4.13E-02
30.958	2.48E-02
30.975	2.80E-02
30.992	2.10E-02
31.009	3.95E-02
31.026	3.18E-02
31.043	4.60E-02
31.06	3.75E-02
31.077	1.80E-02
31.094	3.44E-02
31.111	4.79E-02
31.128	3.57E-02
31.145	5.79E-02
31.162	3.92E-02
31.179	5.71E-02
31.196	6.98E-02
31.213	6.79E-02
31.23	4.55E-02
31.247	5.09E-02
31.264	5.27E-02
31.281	4.93E-02
31.298	3.94E-02
31.315	4.55E-02
31.332	5.75E-02
31.349	5.63E-02
31.366	6.54E-02
31.383	6.20E-02
31.4	5.50E-02
31.417	3.12E-02
31.434	2.78E-02
31.451	4.49E-02
31.468	3.72E-02
31.485	2.58E-02
31.502	2.83E-02
31.519	3.95E-02
31.536	2.59E-02
31.553	2.92E-02
31.57	2.21E-02
31.587	1.44E-02
31.604	1.03E-02
31.621	2.74E-02
31.638	1.75E-02
31.655	2.36E-02
31.672	2.25E-02
31.689	1.54E-02
31.706	1.50E-02
31.723	2.12E-02
31.74	3.24E-02
31.757	2.03E-02
31.774	2.13E-02
31.791	1.94E-02
31.808	1.90E-02
31.825	3.54E-02
31.842	1.01E-02
31.859	-1.31E-03
31.876	2.39E-02
31.893	5.87E-03
31.91	-4.09E-04
31.927	3.13E-02
31.944	1.99E-02
31.961	2.17E-02
31.978	3.52E-02
31.995	1.94E-02
32.012	2.04E-02
32.029	2.51E-02
32.046	2.17E-02
32.063	2.06E-02
32.08	6.25E-03
32.097	1.46E-02
32.114	2.22E-02
32.131	2.32E-02
32.148	-4.25E-03
32.165	-7.61E-03
32.182	-8.77E-03
32.199	1.35E-02
32.216	2.47E-02
32.233	2.43E-02
32.25	2.02E-02
32.267	3.15E-02
32.284	2.16E-02
32.301	9.42E-03
32.318	1.12E-02
32.335	5.13E-04
32.352	1.54E-03
32.369	3.18E-02
32.386	2.63E-02
32.403	1.56E-02
32.42	1.81E-02
32.437	1.99E-02
32.454	1.65E-02
32.471	8.76E-03
32.488	1.05E-02
32.505	1.74E-02
32.522	1.92E-02
32.539	1.36E-02
32.556	2.12E-02
32.573	1.79E-02
32.59	2.84E-02
32.607	2.50E-02
32.624	1.22E-02
32.641	2.56E-02
32.658	2.52E-02
32.675	2.48E-02
32.692	3.31E-02
32.709	3.27E-02
32.726	1.69E-02
32.743	6.93E-03
32.76	2.77E-02
32.777	3.90E-02
32.794	2.70E-03
32.811	3.88E-02
32.828	6.69E-02
32.845	2.55E-02
32.862	2.51E-02
32.879	2.76E-02
32.896	5.49E-02
32.913	6.62E-02
32.93	3.43E-02
32.947	4.48E-02
32.964	5.17E-02
32.981	2.27E-02
32.998	4.50E-02
33.015	3.72E-02
33.032	3.68E-02
33.049	1.66E-02
33.066	3.88E-02
33.083	2.52E-02
33.1	3.65E-02
33.117	2.29E-02
33.134	3.85E-02
33.151	3.29E-02
33.168	2.00E-02
33.185	-8.76E-04
33.202	1.99E-02
33.219	3.85E-02
33.236	2.56E-02
33.253	2.81E-02
33.27	2.32E-02
33.287	2.64E-02
33.304	2.45E-02
33.321	2.84E-02
33.338	3.68E-02
33.355	1.36E-02
33.372	4.42E-03
33.389	1.35E-02
33.406	2.69E-02
33.423	3.45E-02
33.44	2.89E-02
33.457	2.92E-02
33.474	2.44E-02
33.491	2.90E-02
33.508	3.66E-02
33.525	1.57E-02
33.542	1.30E-02
33.559	2.72E-02
33.576	1.94E-02
33.593	2.19E-02
33.61	1.63E-02
33.627	2.02E-02
33.644	3.95E-02
33.661	2.59E-02
33.678	2.32E-02
33.695	2.26E-03
33.712	9.11E-03
33.729	2.18E-02
33.746	3.23E-02
33.763	6.97E-03
33.78	4.45E-02
33.797	1.77E-02
33.814	1.43E-02
33.831	1.97E-02
33.848	2.95E-02
33.865	7.78E-03
33.882	1.54E-02
33.899	1.85E-02
33.916	2.61E-02
33.933	2.12E-02
33.95	2.51E-02
33.967	1.22E-02
33.984	1.47E-02
34.001	4.67E-03
34.018	1.95E-02
34.035	1.03E-02
34.052	9.79E-03
34.069	7.11E-03
34.086	2.05E-02
34.103	2.88E-02
34.12	2.83E-02
34.137	2.49E-02
34.154	1.93E-02
34.171	2.24E-02
34.188	1.90E-02
34.205	3.10E-02
34.222	2.46E-02
34.239	3.29E-02
34.256	2.51E-02
34.273	1.36E-02
34.29	2.26E-02
34.307	1.92E-02
34.324	1.50E-02
34.341	2.40E-02
34.358	2.20E-02
34.375	2.44E-02
34.392	2.32E-02
34.409	2.41E-02
34.426	1.71E-02
34.443	7.03E-03
34.46	1.46E-02
34.477	4.53E-03
34.494	1.81E-03
34.511	5.68E-03
34.528	2.05E-02
34.545	3.68E-02
34.562	2.68E-02
34.579	3.14E-02
34.596	1.11E-02
34.613	6.91E-03
34.63	3.78E-02
34.647	2.92E-02
34.664	2.21E-02
34.681	2.82E-02
34.698	1.59E-02
34.715	3.00E-02
34.732	8.99E-03
34.749	1.14E-02
34.766	3.20E-02
34.783	2.42E-02
34.8	9.58E-04
34.817	2.23E-02
34.834	2.03E-02
34.851	1.10E-02
34.868	3.38E-02
34.885	3.99E-02
34.902	1.44E-02
34.919	3.58E-02
34.936	2.94E-02
34.953	1.64E-02
34.97	2.83E-02
34.987	3.28E-02
35.004	3.59E-02
35.021	2.80E-02
35.038	2.31E-02
35.055	3.35E-02
35.072	3.36E-02
35.089	1.84E-02
35.106	1.42E-02
35.123	1.06E-02
35.14	1.45E-02
35.157	3.36E-02
35.174	3.89E-02
35.191	3.17E-02
35.208	3.48E-02
35.225	2.61E-02
35.242	1.75E-02
35.259	3.37E-02
35.276	2.58E-02
35.293	9.80E-03
35.31	2.31E-02
35.327	1.66E-02
35.344	1.16E-02
35.361	2.71E-02
35.378	3.09E-02
35.395	2.73E-02
35.412	3.33E-02
35.429	2.76E-02
35.446	2.33E-02
35.463	1.24E-02
35.48	1.91E-02
35.497	1.84E-02
35.514	2.37E-02
35.531	2.81E-02
35.548	1.73E-02
35.565	1.95E-02
35.582	3.13E-02
35.599	1.31E-02
35.616	1.91E-02
35.633	2.50E-02
35.65	2.21E-02
35.667	3.03E-02
35.684	2.59E-02
35.701	1.80E-02
35.718	1.80E-02
35.735	2.39E-02
35.752	1.45E-02
35.769	1.89E-02
35.786	1.17E-02
35.803	2.85E-02
35.82	-4.32E-03
35.837	3.67E-02
35.854	1.26E-02
35.871	1.41E-02
35.888	9.01E-03
35.905	1.12E-02
35.922	1.27E-02
35.939	2.01E-02
35.956	1.72E-02
35.973	1.83E-03
35.99	1.43E-02
36.007	4.80E-03
36.024	9.93E-03
36.041	1.58E-02
36.058	2.82E-02
36.075	2.09E-02
36.092	9.23E-03
36.109	8.49E-03
36.126	1.87E-02
36.143	2.16E-02
36.16	1.07E-02
36.177	1.14E-02
36.194	1.28E-02
36.211	1.87E-02
36.228	1.28E-02
36.245	1.42E-02
36.262	2.81E-02
36.279	3.54E-02
36.296	2.65E-02
36.313	2.21E-02
36.33	2.57E-02
36.347	2.50E-02
36.364	2.64E-02
36.381	1.61E-02
36.398	1.16E-02
36.415	2.25E-02
36.432	2.47E-02
36.449	1.73E-02
36.466	2.82E-02
36.483	2.08E-02
36.5	2.66E-02
36.517	8.93E-03
36.534	1.83E-02
36.551	3.00E-02
36.568	1.09E-02
36.585	1.51E-02
36.602	2.16E-02
36.619	1.57E-02
36.636	3.46E-02
36.653	1.84E-02
36.67	1.46E-02
36.687	1.23E-02
36.704	1.80E-02
36.721	3.33E-02
36.738	3.82E-02
36.755	4.91E-02
36.772	2.77E-02
36.789	5.64E-03
36.806	2.16E-02
36.823	1.56E-02
36.84	1.84E-02
36.857	-8.13E-03
36.874	1.44E-02
36.891	9.82E-03
36.908	1.48E-02
36.925	1.09E-02
36.942	4.91E-03
36.959	1.64E-02
36.976	1.33E-02
36.993	2.12E-02
37.01	4.16E-03
37.027	-2.63E-03
37.044	2.50E-02
37.061	1.52E-02
37.078	5.53E-03
37.095	9.70E-03
37.112	6.95E-04
37.129	9.98E-03
37.146	1.93E-02
37.163	1.68E-02
37.18	1.00E-02
37.197	6.84E-03
37.214	2.41E-02
37.231	2.24E-02
37.248	1.34E-02
37.265	1.61E-02
37.282	1.43E-02
37.299	7.48E-03
37.316	1.16E-02
37.333	8.39E-03
37.35	1.03E-02
37.367	1.29E-02
37.384	4.60E-03
37.401	1.45E-02
37.418	1.28E-02
37.435	1.17E-02
37.452	2.64E-03
37.469	8.65E-04
37.486	1.37E-02
37.503	1.41E-02
37.52	1.30E-02
37.537	9.78E-03
37.554	1.68E-02
37.571	1.27E-02
37.588	8.00E-03
37.605	1.20E-02
37.622	1.39E-02
37.639	8.39E-03
37.656	2.19E-02
37.673	1.28E-02
37.69	1.38E-02
37.707	1.27E-02
37.724	6.48E-03
37.741	6.81E-03
37.758	1.08E-02
37.775	1.04E-02
37.792	1.58E-02
37.809	4.79E-05
37.826	4.74E-03
37.843	8.70E-03
37.86	1.34E-02
37.877	1.51E-02
37.894	1.47E-02
37.911	6.20E-03
37.928	1.75E-02
37.945	2.43E-02
37.962	3.12E-02
37.979	3.87E-02
37.996	3.46E-02
38.013	3.78E-02
38.03	3.80E-02
38.047	4.19E-02
38.064	5.82E-02
38.081	5.63E-02
38.098	5.43E-02
38.115	7.86E-02
38.132	9.05E-02
38.149	8.27E-02
38.166	9.24E-02
38.183	1.09E-01
38.2	1.27E-01
38.217	1.41E-01
38.234	1.34E-01
38.251	1.42E-01
38.268	1.51E-01
38.285	1.56E-01
38.302	1.71E-01
38.319	1.85E-01
38.336	1.80E-01
38.353	1.91E-01
38.37	1.91E-01
38.387	1.83E-01
38.404	1.87E-01
38.421	1.99E-01
38.438	1.94E-01
38.455	2.05E-01
38.472	2.19E-01
38.489	2.18E-01
38.506	1.86E-01
38.523	1.76E-01
38.54	1.90E-01
38.557	1.75E-01
38.574	1.72E-01
38.591	1.60E-01
38.608	1.66E-01
38.625	1.61E-01
38.642	1.56E-01
38.659	1.26E-01
38.676	1.43E-01
38.693	9.64E-02
38.71	1.13E-01
38.727	9.56E-02
38.744	9.49E-02
38.761	9.71E-02
38.778	7.15E-02
38.795	1.00E-01
38.812	4.43E-02
38.829	4.94E-02
38.846	4.57E-02
38.863	1.20E-02
38.88	3.10E-02
38.897	2.80E-02
38.914	2.06E-02
38.931	3.22E-02
38.948	5.09E-03
38.965	2.91E-02
38.982	2.02E-02
38.999	2.45E-02
39.016	2.00E-02
39.033	2.72E-02
39.05	1.54E-02
39.067	5.03E-03
39.084	3.43E-03
39.101	6.22E-03
39.118	2.73E-02
39.135	1.98E-02
39.152	1.35E-03
39.169	4.84E-03
39.186	1.49E-02
39.203	1.32E-02
39.22	1.60E-02
39.237	1.94E-02
39.254	1.41E-02
39.271	2.41E-02
39.288	3.71E-02
39.305	4.42E-02
39.322	3.30E-02
39.339	7.86E-03
39.356	2.88E-02
39.373	4.54E-02
39.39	3.71E-02
39.407	3.97E-02
39.424	4.09E-02
39.441	3.41E-02
39.458	3.60E-02
39.475	6.06E-02
39.492	6.39E-02
39.509	4.39E-02
39.526	4.43E-02
39.543	5.06E-02
39.56	5.40E-02
39.577	4.86E-02
39.594	5.42E-02
39.611	6.49E-02
39.628	6.54E-02
39.645	8.19E-02
39.662	5.97E-02
39.679	8.00E-02
39.696	8.92E-02
39.713	9.27E-02
39.73	1.02E-01
39.747	9.59E-02
39.764	1.00E-01
39.781	9.47E-02
39.798	1.12E-01
39.815	1.40E-01
39.832	1.14E-01
39.849	1.13E-01
39.866	1.22E-01
39.883	1.22E-01
39.9	1.49E-01
39.917	1.53E-01
39.934	1.45E-01
39.951	1.33E-01
39.968	1.32E-01
39.985	1.53E-01
40.002	1.48E-01
40.019	1.42E-01
40.036	1.47E-01
40.053	1.67E-01
40.07	1.42E-01
40.087	1.61E-01
40.104	1.57E-01
40.121	1.68E-01
40.138	1.59E-01
40.155	1.57E-01
40.172	1.42E-01
40.189	1.39E-01
40.206	1.43E-01
40.223	1.50E-01
40.24	1.75E-01
40.257	1.73E-01
40.274	1.49E-01
40.291	1.49E-01
40.308	1.36E-01
40.325	1.40E-01
40.342	1.68E-01
40.359	1.44E-01
40.376	1.26E-01
40.393	1.28E-01
40.41	1.13E-01
40.427	1.14E-01
40.444	1.17E-01
40.461	1.08E-01
40.478	9.70E-02
40.495	1.30E-01
40.512	1.03E-01
40.529	1.07E-01
40.546	7.35E-02
40.563	7.78E-02
40.58	9.82E-02
40.597	1.06E-01
40.614	6.53E-02
40.631	7.86E-02
40.648	6.11E-02
40.665	7.45E-02
40.682	6.46E-02
40.699	3.93E-02
40.716	4.04E-02
40.733	4.02E-02
40.75	3.56E-02
40.767	3.77E-02
40.784	3.55E-02
40.801	7.06E-03
40.818	7.99E-03
40.835	4.12E-02
40.852	1.60E-02
40.869	8.46E-03
40.886	1.05E-02
40.903	-1.14E-02
40.92	-9.82E-03
40.937	1.02E-02
40.954	3.10E-02
40.971	2.93E-02
40.988	5.70E-04
41.005	-2.66E-02
41.022	-1.92E-02
41.039	-4.49E-03
41.056	-1.97E-02
41.073	-2.02E-02
41.09	-1.19E-02
41.107	-1.01E-02
41.124	-1.34E-02
41.141	-2.19E-02
41.158	-1.42E-02
41.175	-1.76E-02
41.192	-1.44E-02
41.209	-1.63E-02
41.226	-1.38E-02
41.243	-1.36E-02
41.26	-1.13E-02
41.277	-2.29E-02
41.294	-2.28E-02
41.311	-8.15E-03
41.328	-7.45E-03
41.345	-1.78E-02
41.362	-1.79E-03
41.379	-1.96E-03
41.396	-6.57E-03
41.413	3.42E-03
41.43	7.49E-03
41.447	1.45E-02
41.464	1.85E-02
41.481	1.51E-02
41.498	5.11E-03
41.515	2.40E-03
41.532	2.67E-02
41.549	1.81E-02
41.566	1.31E-02
41.583	3.80E-02
41.6	5.41E-02
41.617	6.95E-02
41.634	9.21E-02
41.651	7.89E-02
41.668	1.15E-01
41.685	1.68E-01
41.702	3.47E-01
41.719	1.05E+00
41.736	4.57E+00
41.753	2.32E+01
41.77	6.83E+01
41.787	1.07E+02
41.804	1.10E+02
41.821	5.45E+01
41.838	1.13E+01
41.855	1.72E+00
41.872	3.91E-01
41.889	3.44E-01
41.906	3.47E-01
41.923	3.05E-01
41.94	2.10E-01
41.957	1.46E-01
41.974	8.22E-02
41.991	5.75E-02
42.008	3.87E-02
42.025	3.74E-02
42.042	2.43E-02
42.059	4.28E-02
42.076	3.92E-02
42.093	2.90E-02
42.11	2.99E-02
42.127	1.97E-02
42.144	1.53E-02
42.161	3.22E-02
42.178	1.76E-02
42.195	2.13E-02
42.212	3.15E-02
42.229	2.64E-02
42.246	2.12E-02
42.263	1.68E-02
42.28	1.01E-02
42.297	-1.80E-04
42.314	1.94E-03
42.331	7.68E-03
42.348	5.39E-03
42.365	3.82E-03
42.382	1.69E-02
42.399	1.09E-02
42.416	2.17E-02
42.433	1.57E-02
42.45	1.55E-02
42.467	-1.49E-03
42.484	9.29E-03
42.501	3.99E-03
42.518	1.33E-02
42.535	1.89E-02
42.552	1.21E-02
42.569	1.70E-02
42.586	1.82E-02
42.603	1.72E-02
42.62	5.28E-03
42.637	3.28E-02
42.654	2.16E-02
42.671	1.54E-02
42.688	2.83E-02
42.705	1.19E-02
42.722	2.04E-02
42.739	1.57E-02
42.756	3.51E-02
42.773	1.43E-02
42.79	1.76E-02
42.807	1.65E-02
42.824	1.47E-02
42.841	1.29E-02
42.858	3.74E-02
42.875	2.09E-02
42.892	6.68E-03
42.909	7.03E-03
42.926	1.61E-02
42.943	2.60E-02
42.96	2.70E-02
42.977	6.15E-03
42.994	6.48E-03
43.011	1.92E-02
43.028	3.05E-02
43.045	1.83E-02
43.062	1.06E-02
43.079	7.96E-03
43.096	1.12E-02
43.113	1.51E-02
43.13	1.32E-02
43.147	1.12E-02
43.164	7.85E-03
43.181	1.69E-02
43.198	2.15E-02
43.215	1.52E-02
43.232	1.91E-02
43.249	2.37E-02
43.266	1.51E-02
43.283	2.05E-02
43.3	2.66E-02
43.317	1.43E-02
43.334	1.23E-02
43.351	8.90E-03
43.368	2.01E-02
43.385	2.61E-02
43.402	1.97E-02
43.419	1.92E-02
43.436	1.35E-02
43.453	4.91E-03
43.47	7.28E-03
43.487	6.00E-03
43.504	2.37E-02
43.521	1.07E-02
43.538	2.33E-02
43.555	1.76E-02
43.572	3.11E-03
43.589	2.23E-02
43.606	1.15E-02
43.623	1.08E-02
43.64	2.63E-02
43.657	1.91E-02
43.674	1.12E-02
43.691	8.42E-03
43.708	1.22E-02
43.725	1.01E-02
43.742	1.46E-02
43.759	3.23E-02
43.776	-2.74E-03
43.793	1.86E-02
43.81	2.89E-02
43.827	2.24E-02
43.844	1.67E-02
43.861	1.24E-02
43.878	-7.33E-04
43.895	-6.56E-04
43.912	2.79E-02
43.929	1.12E-02
43.946	6.16E-03
43.963	2.96E-02
43.98	2.60E-02
43.997	2.61E-02
44.014	1.44E-02
44.031	1.59E-02
44.048	6.39E-04
44.065	-3.84E-05
44.082	2.12E-02
44.099	2.12E-02
44.116	7.38E-03
44.133	1.11E-02
44.15	9.64E-03
44.167	1.11E-02
44.184	8.97E-03
44.201	1.05E-02
44.218	9.01E-03
44.235	5.37E-03
44.252	1.56E-02
44.269	1.34E-02
44.286	-1.92E-03
44.303	8.33E-03
44.32	2.00E-02
44.337	1.20E-02
44.354	1.42E-02
44.371	1.05E-02
44.388	1.13E-02
44.405	1.35E-02
44.422	2.30E-02
44.439	1.05E-02
44.456	1.49E-02
44.473	9.82E-03
44.49	2.23E-02
44.507	2.23E-02
44.524	6.89E-03
44.541	6.16E-03
44.558	1.27E-02
44.575	9.82E-03
44.592	3.97E-03
44.609	-1.15E-03
44.626	1.71E-02
44.643	1.35E-02
44.66	8.36E-03
44.677	8.36E-03
44.694	-4.14E-04
44.711	-4.07E-03
44.728	1.42E-02
44.745	1.71E-02
44.762	1.64E-02
44.779	1.20E-02
44.796	2.37E-02
44.813	-3.33E-03
44.83	9.10E-03
44.847	1.13E-02
44.864	1.06E-02
44.881	2.59E-02
44.898	2.53E-03
44.915	1.20E-02
44.932	2.01E-02
44.949	2.74E-02
44.966	2.45E-02
44.983	3.03E-02
45	2.08E-02
45.017	1.13E-02
45.034	6.20E-03
45.051	1.79E-02
45.068	1.13E-02
45.085	1.21E-02
45.102	1.57E-02
45.119	1.06E-02
45.136	6.94E-03
45.153	6.21E-03
45.17	1.13E-02
45.187	1.94E-02
45.204	5.49E-03
45.221	9.88E-03
45.238	1.79E-02
45.255	1.57E-02
45.272	1.65E-02
45.289	1.57E-02
45.306	1.43E-02
45.323	2.01E-02
45.34	1.21E-02
45.357	1.36E-02
45.374	1.50E-02
45.391	4.79E-03
45.408	9.18E-03
45.425	8.45E-03
45.442	1.21E-02
45.459	8.46E-03
45.476	-1.05E-03
45.493	1.88E-03
45.51	4.08E-03
45.527	-4.69E-03
45.544	1.94E-02
45.561	2.63E-03
45.578	-3.95E-03
45.595	1.90E-03
45.612	8.49E-03
45.629	1.95E-02
45.646	-4.67E-03
45.663	9.96E-03
45.68	1.66E-02
45.697	1.22E-02
45.714	-5.38E-03
45.731	-9.92E-04
45.748	4.86E-03
45.765	1.58E-02
45.782	-5.37E-03
45.799	9.26E-03
45.816	7.81E-03
45.833	1.96E-03
45.85	4.16E-03
45.867	1.00E-02
45.884	1.29E-02
45.901	4.17E-03
45.918	7.10E-03
45.935	1.59E-02
45.952	1.08E-02
45.969	1.08E-02
45.986	1.15E-02
46.003	7.12E-03
46.02	5.67E-03
46.037	6.40E-03
46.054	7.87E-03
46.071	1.08E-02
46.088	8.61E-03
46.105	9.35E-03
46.122	1.37E-02
46.139	1.08E-02
46.156	6.44E-03
46.173	6.44E-03
46.19	5.72E-03
46.207	9.38E-03
46.224	1.38E-02
